File: Results/TGA/Results_full_032_NF_1_PP1-004_TiO2_HL_ZY.csv
filename,Tmax,T50,polymer_weight,cat_weight,coke_weight,num_loading,num_run
032_NF_1_PP1-004_TiO2_HL_ZY_P_1_1.txt,258.93,243.91,5.2404,2.178058,0.043326,1,1
032_NF_1_PP1-004_TiO2_HL_ZY_P_1_2.txt,291.29,271.68,4.708386,0.961759,0.027337,2,1
032_NF_1_PP1-004_TiO2_HL_ZY_P_1_3.txt,310.59,289.81,4.799409,0.595904,0.029505,3,1
032_NF_1_PP1-004_TiO2_HL_ZY_S320101_2_1.txt,259.02,246.49,5.000292,2.187407,0.030353,1,2
032_NF_1_PP1-004_TiO2_HL_ZY_S320102_2_2.txt,301.47,284.11,5.277935,0.977341,0.027982,2,2
032_NF_1_PP1-004_TiO2_HL_ZY_S320103_2_3.txt,319.35,299.91,4.874952,0.593126,0.028963,3,2
032_NF_1_PP1-004_TiO2_HL_ZY_S320201_3_1.txt,269.27,255.4,5.699278,2.288051,0.046952,1,3
032_NF_1_PP1-004_TiO2_HL_ZY_S320202_3_2.txt,325.08,311.65,4.883895,1.012098,0.022053,2,3
032_NF_1_PP1-004_TiO2_HL_ZY_S320203_3_3.txt,340.32,329.89,4.73718,0.676866,0.024898,3,3