File: Results/TGA/Results_full_006_NF_1_PP1-004_MgCl.6H2o_LL_ZY.csv
filename,Tmax,T50,polymer_weight,cat_weight,coke_weight,num_loading,num_run
006_NF_1_PP1-004_MgCl.6H2o_LL_ZY_P_1_1.txt,256.13,243.22,4.660622,1.981851,0.037737,1,1
006_NF_1_PP1-004_MgCl.6H2o_LL_ZY_P_1_2.txt,281.1,261.7,4.70178,0.969923,0.026389,2,1
006_NF_1_PP1-004_MgCl.6H2o_LL_ZY_P_1_3.txt,299.43,280.35,4.65639,0.668702,0.020766,3,1
006_NF_1_PP1-004_MgCl.6H2o_LL_ZY_S060101_2_1.txt,254.0,242.17,4.66679,2.022027,0.032385,1,2
006_NF_1_PP1-004_MgCl.6H2o_LL_ZY_S060102_2_2.txt,283.79,267.46,4.64392,1.035099,0.022087,2,2
006_NF_1_PP1-004_MgCl.6H2o_LL_ZY_S060103_2_3.txt,299.58,279.59,4.424543,0.697903,0.018597,3,2
006_NF_1_PP1-004_MgCl.6H2o_LL_ZY_S060201_3_1.txt,254.61,243.45,4.652763,2.025313,0.033063,1,3
006_NF_1_PP1-004_MgCl.6H2o_LL_ZY_S060202_3_2.txt,284.7,268.13,4.71354,1.036928,0.020766,2,3
006_NF_1_PP1-004_MgCl.6H2o_LL_ZY_S060203_3_3.txt,301.67,281.69,4.636977,0.694718,0.018869,3,3