File: Results/TGA/Results_full_001_NF_1_PP1-004_N_N_ZY.csv
filename,Tmax,T50,polymer_weight,cat_weight,coke_weight,num_loading,num_run
001_NF_1_PP1-004_N_N_ZY_P_1_1.txt,238.93,225.25,4.727729,2.079311,0.064668,1,1
001_NF_1_PP1-004_N_N_ZY_P_1_2.txt,268.87,248.6,4.70856,1.051766,0.035332,2,1
001_NF_1_PP1-004_N_N_ZY_P_1_3.txt,295.87,272.27,4.14836,0.522631,0.020054,3,1
001_NF_1_PP1-004_N_N_ZY_S010101_2_1.txt,241.41,227.65,4.66503,2.067556,0.054505,1,2
001_NF_1_PP1-004_N_N_ZY_S010102_2_2.txt,266.08,248.07,4.652119,1.04621,0.030488,2,2
001_NF_1_PP1-004_N_N_ZY_S010103_2_3.txt,303.73,277.81,4.640737,0.519921,0.018055,3,2
001_NF_1_PP1-004_N_N_ZY_S010201_3_1.txt,237.39,225.14,4.5822,2.04137,0.051186,1,3
001_NF_1_PP1-004_N_N_ZY_S010202_3_2.txt,261.6,245.75,4.37265,1.043263,0.028489,2,3
001_NF_1_PP1-004_N_N_ZY_S010203_3_3.txt,297.62,273.03,4.137686,0.517516,0.01687,3,3