File: Results/TGA/Results_full_009_NF_1_PP1-004_NH4Cl_LL_ZY.csv
filename,Tmax,T50,polymer_weight,cat_weight,coke_weight,num_loading,num_run
009_NF_1_PP1-004_NH4Cl_LL_ZY_P_1_1.txt,245.82,231.55,4.687214,1.665488,0.053828,1,1
009_NF_1_PP1-004_NH4Cl_LL_ZY_P_1_2.txt,268.97,250.62,4.712587,0.977206,0.035942,2,1
009_NF_1_PP1-004_NH4Cl_LL_ZY_P_1_3.txt,287.97,267.03,4.669395,0.569447,0.024458,3,1
009_NF_1_PP1-004_NH4Cl_LL_ZY_S090101_2_1.txt,246.73,232.39,4.68464,1.679885,0.046172,1,2
009_NF_1_PP1-004_NH4Cl_LL_ZY_S090102_2_2.txt,270.63,252.53,4.638433,0.989977,0.03208,2,2
009_NF_1_PP1-004_NH4Cl_LL_ZY_S090103_2_3.txt,292.18,272.59,4.786165,0.581811,0.021782,3,2
009_NF_1_PP1-004_NH4Cl_LL_ZY_S090201_3_1.txt,246.1,232.67,4.763942,1.678225,0.046105,1,3
009_NF_1_PP1-004_NH4Cl_LL_ZY_S090202_3_2.txt,271.84,253.41,4.778169,0.988453,0.031978,2,3
009_NF_1_PP1-004_NH4Cl_LL_ZY_S090203_3_3.txt,293.6,272.17,4.724002,0.580389,0.022323,3,3