File: Results/TGA/Results_full_011_NF_1_PP1-004_Cu_LL_ZY.csv
filename,Tmax,T50,polymer_weight,cat_weight,coke_weight,num_loading,num_run
011_NF_1_PP1-004_Cu_LL_ZY_P_1_1.txt,258.16,244.71,4.82312,2.00492,0.038415,1,1
011_NF_1_PP1-004_Cu_LL_ZY_P_1_2.txt,296.55,274.76,4.79473,0.947294,0.021545,2,1
011_NF_1_PP1-004_Cu_LL_ZY_P_1_3.txt,302.27,278.48,4.653338,0.688079,0.022899,3,1
011_NF_1_PP1-004_Cu_LL_ZY_S110101_2_1.txt,263.57,250.14,4.70225,2.005157,0.028489,1,2
011_NF_1_PP1-004_Cu_LL_ZY_S110102_2_2.txt,308.72,288.86,4.740635,0.940011,0.023272,2,2
011_NF_1_PP1-004_Cu_LL_ZY_S110103_2_3.txt,322.31,301.95,4.749207,0.68818,0.024357,3,2
011_NF_1_PP1-004_Cu_LL_ZY_S110201_3_1.txt,277.02,260.99,4.77773,2.007596,0.027473,1,3
011_NF_1_PP1-004_Cu_LL_ZY_S110202_3_2.txt,325.67,307.97,4.75405,0.940485,0.023916,2,3
011_NF_1_PP1-004_Cu_LL_ZY_S110203_3_3.txt,337.95,321.6,4.693345,0.685132,0.024661,3,3